##TITLE= sensitivity enhanced tmSPICE CP for CA->CO transfer, MAS freq. 20kHz, 400MHz spectrometer, 13C channel (from shape_lev4_temp_485.dat)
##USAGE= set contact time 36 rotor periods, RF power corresponding to 40kHz nut. freq.
##JCAMP-DX= 5.00 $$ Bruker JCAMP library
##DATA TYPE= Shape Data
##ORIGIN= SIMPSON 4.2
##DATE= 24-Nov-2021
##TIME= 09:29:18
##MINX= 0.000000e+00
##MAXX= 1.000000e+02
##MINY= 0.000000e+00
##MAXY= 3.600000e+02
##$SHAPE_EXMODE= None
##$SHAPE_TOTROT= 0.000000e+00
##$SHAPE_BWFAC= 0.000000e+00
##$SHAPE_INTEGFAC= 0.000000e+00
##$SHAPE_MODE= 1
##NPOINTS= 900
##XYPOINTS= (XY..XY)
8.309855e+01, 2.046613e+02
6.664781e+01, 1.984442e+02
6.151658e+01, 1.951273e+02
4.996258e+01, 1.752257e+02
2.970617e+01, 1.617524e+02
1.597742e+01, 1.116714e+02
3.428262e+01, 4.816694e+01
4.043764e+01, 7.371228e+01
5.102150e+01, 8.665683e+01
7.906141e+01, 1.152376e+02
9.863530e+01, 1.325665e+02
8.838163e+01, 1.536529e+02
8.532511e+01, 1.739671e+02
8.281077e+01, 1.892147e+02
8.117880e+01, 1.851816e+02
5.665240e+01, 1.862460e+02
2.519476e+01, 1.994059e+02
1.289031e+01, 7.568377e+01
3.007822e+01, 3.486592e+02
5.367489e+01, 3.505952e+02
4.984152e+01, 3.375102e+02
3.081133e+01, 3.280957e+02
2.522751e+01, 3.289656e+02
1.113107e+01, 3.636894e+00
1.379661e+01, 1.344528e+01
4.639107e+01, 3.154214e+02
7.106619e+01, 3.080310e+02
7.900483e+01, 2.964443e+02
7.587522e+01, 2.778852e+02
4.090498e+01, 2.411999e+02
3.921214e+01, 1.782098e+02
3.994761e+01, 1.757325e+02
3.982352e+01, 1.911054e+02
6.871183e+01, 2.450379e+02
9.999809e+01, 2.570236e+02
9.984564e+01, 2.619033e+02
9.976068e+01, 2.691058e+02
6.843317e+01, 2.847248e+02
4.105575e+01, 3.250316e+02
5.385281e+01, 3.322656e+02
5.195028e+01, 3.367411e+02
3.828880e+01, 3.236247e+02
3.058750e+01, 2.762174e+02
3.045945e+01, 2.121219e+02
5.002225e+01, 1.615307e+02
5.585881e+01, 1.408562e+02
4.473246e+01, 1.268343e+02
4.991428e+01, 1.027174e+02
7.453523e+00, 9.706645e+01
4.437203e+01, 2.706834e+02
4.776272e+01, 2.806214e+02
6.561234e+01, 2.684898e+02
5.853519e+01, 2.568466e+02
1.821744e+01, 2.674020e+02
9.350738e+00, 1.394123e+02
3.092488e+01, 1.158829e+02
3.299963e+01, 1.115492e+02
4.546340e+01, 1.186569e+02
4.464560e+01, 1.646222e+02
4.671658e+01, 1.685188e+02
3.845240e+01, 1.677389e+02
5.172475e+01, 2.051132e+02
2.402823e+01, 1.912368e+02
2.093268e+01, 9.169437e+01
2.827094e+01, 9.651273e+01
5.006236e+01, 8.103199e+01
5.724556e+01, 8.438875e+01
6.008079e+01, 1.088668e+02
5.636307e+01, 1.478802e+02
7.069208e+01, 1.583887e+02
7.396927e+01, 1.847513e+02
6.704930e+01, 2.079054e+02
1.735620e+01, 2.119691e+02
1.558004e+01, 2.129373e+02
2.530643e+01, 2.019625e+02
1.381010e+01, 1.865595e+02
4.807638e+01, 1.934257e+02
8.000663e+01, 1.972025e+02
7.954509e+01, 2.046976e+02
7.135125e+01, 1.958249e+02
4.677167e+01, 1.748971e+02
8.598995e+00, 1.407684e+02
4.191021e+01, 5.398594e+01
3.568569e+01, 3.284930e+01
7.006036e+01, 5.578979e+01
9.871511e+01, 7.033149e+01
6.451932e+01, 1.060740e+02
5.474304e+01, 9.596676e+01
4.489660e+01, 7.454992e+01
2.739986e+01, 1.207646e+02
1.995526e+01, 8.901981e+01
2.087792e+01, 9.341855e+01
5.860933e+01, 1.293144e+02
5.198876e+01, 1.626123e+02
5.849313e+01, 1.342115e+02
3.753337e+01, 1.773300e+02
4.124429e+01, 2.284929e+02
2.761527e+01, 8.015322e+00
2.079091e+01, 3.304219e+02
3.113543e+01, 2.784603e+02
6.819880e+01, 3.070091e+02
9.449422e+01, 2.729845e+02
9.701993e+01, 2.529628e+02
9.687465e+01, 2.566531e+02
3.566276e+01, 2.363770e+02
2.723162e+01, 1.118913e+02
1.314763e+01, 9.781368e+01
2.697899e+01, 1.182784e+02
5.620628e+01, 1.990767e+02
7.161984e+01, 2.053999e+02
7.647129e+01, 2.089135e+02
9.124063e+01, 2.136422e+02
5.280255e+01, 2.295429e+02
2.299770e+01, 2.784235e+02
1.842425e+01, 3.441825e+02
4.827240e+01, 3.541357e+02
5.994254e+01, 3.477207e+02
4.181682e+01, 3.336043e+02
4.740245e+01, 2.832082e+02
4.905688e+01, 2.240402e+02
5.640626e+01, 2.080763e+02
3.621163e+01, 1.942672e+02
4.923137e+01, 1.304885e+02
3.123926e+01, 1.108824e+02
4.788261e+00, 7.493510e+01
4.465904e+00, 9.266443e+01
3.471809e+01, 2.658504e+02
6.040888e+01, 2.626925e+02
4.712939e+01, 2.772357e+02
2.315407e+01, 2.643915e+02
1.319667e+01, 1.610016e+02
1.474289e+01, 7.807271e+01
4.322569e+01, 1.053039e+02
3.178606e+01, 9.324141e+01
5.637985e+01, 9.150265e+01
7.322433e+01, 8.313816e+01
4.455138e+01, 6.852777e+01
4.827402e+01, 6.428526e+01
4.781056e+01, 6.743354e+01
3.716406e+01, 1.180636e+02
4.804015e+01, 1.201249e+02
4.459637e+01, 1.172837e+02
5.080378e+01, 1.314026e+02
2.567089e+01, 1.589865e+02
4.122674e+01, 1.599981e+02
4.507628e+01, 2.027747e+02
5.952410e+01, 2.181615e+02
5.313747e+01, 1.642365e+02
3.099919e+01, 1.525404e+02
1.806771e+01, 3.903504e+01
9.228332e+01, 2.244187e+01
9.943991e+01, 3.563073e+02
1.000000e+02, 3.386094e+02
1.000000e+02, 3.226275e+02
6.178260e+01, 2.876743e+02
4.926885e+01, 2.337068e+02
8.175768e+01, 2.274318e+02
7.506835e+01, 1.927979e+02
9.999908e+01, 1.916744e+02
1.000000e+02, 1.478276e+02
1.000000e+02, 1.055824e+02
5.565575e+01, 1.097298e+02
4.865463e+01, 4.136884e+01
8.005861e+01, 4.434462e+00
6.773512e+01, 4.781042e+00
7.042109e+01, 4.778479e-01
4.491172e+01, 6.564557e+00
6.632597e+01, 7.407380e+01
7.479989e+01, 1.210242e+02
1.000000e+02, 1.188128e+02
1.000000e+02, 1.471504e+02
1.000000e+02, 1.696793e+02
6.511987e+01, 1.649581e+02
4.537100e+01, 1.867625e+02
3.701730e+01, 2.071222e+02
2.023371e+01, 2.646993e+02
3.034845e+01, 2.365163e+02
4.773321e+01, 2.198921e+02
7.768990e+01, 2.394635e+02
7.001218e+01, 2.341632e+02
4.742108e+01, 2.256746e+02
7.353193e+01, 2.364580e+02
3.813933e+01, 2.132141e+02
6.567141e+01, 2.021259e+02
4.063704e+01, 1.550836e+02
4.603059e+01, 9.625499e+01
4.324059e+01, 1.311735e+02
2.797122e+01, 9.637043e+01
2.861508e+01, 5.202731e+01
4.325325e+01, 9.758342e+01
2.867543e+01, 9.367188e+01
9.779226e+00, 1.271138e+02
3.972820e+01, 1.303748e+02
5.161194e+01, 2.015529e+02
4.974422e+01, 1.909316e+02
5.721256e+01, 2.335613e+02
6.826871e+01, 2.680470e+02
2.913965e+01, 3.164132e+02
2.172811e+01, 3.187523e+02
1.740092e+01, 2.398903e+02
3.526245e+01, 1.718265e+02
8.041199e+01, 1.880661e+02
1.000000e+02, 1.921250e+02
7.737139e+01, 2.106948e+02
3.534124e+01, 2.187511e+02
1.109653e+01, 3.312454e+02
6.461161e+01, 2.938231e+02
4.167958e+01, 2.876514e+02
8.875538e+01, 2.316376e+02
7.826971e+01, 1.791151e+02
8.467318e+01, 1.349971e+02
8.297825e+01, 1.526980e+02
3.835990e+01, 1.238389e+02
2.288551e+01, 7.013029e+01
4.977203e+01, 1.122472e+02
6.119013e+01, 1.292311e+02
7.875268e+01, 1.565742e+02
7.142371e+01, 1.555167e+02
7.958875e+01, 1.911950e+02
4.823303e+01, 2.480667e+02
4.879203e+01, 2.724873e+02
3.902766e+01, 2.940883e+02
4.070510e+01, 3.140249e+02
2.148457e+01, 3.414434e+02
1.706339e+01, 5.224252e+01
3.710858e+01, 1.127893e+02
4.406867e+01, 1.151759e+02
3.869076e+01, 1.196322e+02
3.317787e+01, 1.353911e+02
2.185677e+01, 1.755869e+02
1.689655e+01, 2.079267e+02
2.656623e+01, 2.478966e+02
1.226267e+01, 3.510421e+02
1.076468e+01, 3.210729e+02
5.766366e+01, 3.098292e+01
9.817736e+01, 3.490889e+01
7.380835e+01, 3.855037e+01
8.423783e+01, 1.923309e+01
9.566677e+01, 3.566860e+02
7.767275e+01, 3.433083e+02
9.221093e+01, 3.153563e+02
9.783167e+01, 2.933898e+02
3.783879e+01, 3.045599e+02
2.755838e+01, 2.269387e+02
5.314599e+01, 7.097072e+01
5.796730e+01, 1.001990e+02
7.212070e+01, 1.215644e+02
5.494520e+01, 6.857581e+01
2.749889e+01, 1.249115e+02
5.735815e+01, 1.809976e+02
9.139117e+01, 2.312055e+02
9.613551e+01, 2.086626e+02
7.362360e+01, 1.769605e+02
6.090274e+01, 2.020662e+02
2.329421e+01, 1.524121e+02
2.904179e+01, 5.534625e+01
2.525263e+01, 2.663019e+02
4.314882e+01, 3.305258e+02
3.266928e+01, 2.934955e+02
6.214571e+01, 3.478310e+02
9.901689e+01, 5.061567e+00
7.677519e+01, 3.172072e+01
5.829963e+01, 3.231870e+01
2.221181e+01, 1.930831e+01
3.240402e+01, 4.758509e+01
9.814801e+00, 3.206511e+02
3.362358e+01, 2.208150e+02
7.024387e+00, 1.404127e+01
2.625231e+01, 1.947599e+02
1.815010e+01, 3.054358e+02
1.573381e+01, 2.657089e+02
1.086138e+01, 2.809897e+02
2.171351e+01, 2.938405e+02
1.779608e+01, 3.154035e+02
2.145897e+01, 3.524589e+02
3.753552e+01, 5.531160e+01
6.357234e+01, 5.262010e+01
6.978181e+01, 5.280712e+01
6.576953e+01, 5.789065e+01
2.912707e+01, 7.330036e+01
1.568153e+01, 1.568206e+02
1.475972e+01, 1.806035e+02
5.383083e+00, 1.017805e+02
2.241888e+01, 4.167130e+01
5.137381e+01, 2.876826e+01
5.998397e+01, 2.097746e+01
4.392092e+01, 2.297012e+01
2.340714e+01, 4.068253e+01
1.860315e+01, 9.753390e+01
2.052998e+01, 6.000604e+01
2.385197e+01, 6.560850e+01
1.813918e+01, 7.378653e+01
3.475254e+01, 2.748104e+02
3.098466e+01, 2.556706e+02
7.474630e+01, 2.395701e+02
3.439830e+01, 2.192574e+02
1.778767e+01, 9.407938e+01
3.813551e+01, 1.647898e+02
1.971119e+01, 1.027221e+02
4.292061e+01, 1.824827e+01
5.197046e+01, 5.111548e+01
8.207939e+01, 2.614227e+01
7.706995e+01, 1.245944e+01
7.382608e+01, 3.890605e+01
1.967140e+01, 4.490556e+01
1.885938e+01, 1.969519e+02
3.192691e+01, 4.985769e+00
2.269406e+01, 3.518717e+02
8.294696e+01, 3.396003e+02
8.399336e+01, 3.469629e+02
8.359087e+01, 3.512788e+02
7.517294e+01, 3.381960e+02
6.824024e+01, 3.262623e+02
6.928086e+01, 2.980053e+02
7.291535e+01, 2.855722e+02
4.858069e+01, 2.517766e+02
3.777383e+01, 1.708277e+02
1.832744e+01, 1.075926e+02
8.021636e+01, 8.806215e+01
5.372018e+01, 6.311323e+01
6.392730e+01, 6.825343e+01
5.159187e+01, 7.050306e+01
8.386486e+00, 2.000984e+02
8.734573e+00, 2.387651e+02
4.925674e+00, 4.806416e+01
4.621397e+01, 8.283908e+01
7.859149e+01, 6.900221e+01
9.258862e+01, 6.326276e+01
7.806119e+01, 6.027273e+01
3.756603e+01, 5.819339e+01
7.794527e+00, 5.648880e+01
4.116621e+01, 2.114799e+02
9.989437e+00, 2.434643e+02
2.097409e+01, 1.557493e+02
5.792596e+01, 3.112817e+01
1.000000e+02, 2.159254e+01
9.336146e+01, 4.565673e+01
6.228466e+01, 3.658134e+01
2.082140e+01, 1.205008e+01
2.065235e+01, 5.050310e+01
2.373066e+01, 1.633726e+02
6.791342e+01, 1.651105e+02
4.804989e+01, 1.409322e+02
7.222812e+01, 1.497973e+02
7.944894e+00, 1.679753e+02
1.163927e+01, 2.410614e+02
2.091757e+01, 2.630154e+02
6.542146e+01, 2.886111e+02
5.371777e+01, 2.876769e+02
4.761926e+01, 2.829215e+02
7.769803e+01, 2.554668e+02
9.873907e+01, 2.445254e+02
9.566554e+01, 2.340384e+02
5.654379e+01, 2.076006e+02
2.197727e+01, 1.491747e+02
2.882755e+01, 8.608873e+01
2.983471e+01, 6.247090e+01
1.972692e+01, 1.020683e+02
4.318890e+01, 1.957845e+02
7.785628e+01, 1.880319e+02
8.505926e+01, 1.821008e+02
8.523570e+01, 1.969716e+02
3.637851e+01, 2.066544e+02
1.272644e+01, 3.414532e+02
2.441117e+01, 9.783671e+00
3.746142e+01, 2.539533e+01
3.003061e+01, 5.338509e+01
3.292265e+01, 1.176713e+02
5.847610e+01, 1.618542e+02
6.985795e+01, 1.627537e+02
5.704993e+01, 1.813561e+02
3.644538e+01, 2.179477e+02
2.036327e+01, 3.324237e+02
3.724926e+01, 3.244914e+02
3.873751e+01, 3.113683e+02
3.309661e+01, 3.194600e+02
2.154507e+01, 2.008073e+02
7.377054e+01, 1.591159e+02
8.429595e+01, 1.466032e+02
9.612142e+01, 1.336308e+02
8.561951e+01, 1.238048e+02
2.874910e+01, 1.164671e+02
3.645919e+01, 1.154230e+02
1.898457e+01, 1.406083e+02
4.157580e+01, 1.183481e+02
5.778443e+01, 1.092595e+02
2.693612e+01, 1.352348e+02
1.979076e+01, 1.161683e+02
2.162348e+01, 8.353925e+01
2.541966e+01, 1.601089e+02
2.367243e+01, 1.063187e+02
3.033492e+01, 6.072312e+01
4.277347e+01, 1.201962e+02
3.695455e+00, 1.377964e+02
3.515490e+01, 1.326530e+02
2.442047e+01, 2.377137e+02
6.129570e+01, 2.522855e+02
5.583072e+00, 3.409882e+02
3.227802e+01, 2.450946e+02
7.965704e+01, 2.268102e+02
6.636529e+01, 2.604797e+02
1.000000e+02, 2.277939e+02
1.000000e+02, 2.017233e+02
5.301542e+01, 2.261399e+02
4.031031e+01, 1.221863e+02
8.399269e+01, 9.248351e+01
1.913446e+01, 3.987506e+01
2.356376e+01, 7.606033e+01
7.905531e+01, 2.155910e+02
8.669322e+01, 1.966169e+02
6.437046e+01, 1.772979e+02
9.198925e+01, 1.851845e+02
2.244868e+01, 1.775411e+02
3.706512e+01, 3.452691e+02
2.920325e+00, 3.055053e+02
3.810658e+01, 3.252270e+02
6.399729e+01, 3.275934e+02
8.032631e+01, 4.457979e+01
9.637646e+01, 2.910971e+01
9.954329e+01, 3.506693e+01
1.000000e+02, 6.955219e+00
1.000000e+02, 3.395774e+02
1.000000e+02, 3.483589e+02
6.395501e+01, 3.412004e+02
1.379281e+01, 1.222839e+02
4.629355e+01, 1.077606e+02
9.964068e+01, 1.330808e+02
1.000000e+02, 1.377568e+02
6.390092e+01, 1.601638e+02
3.708940e+01, 1.866102e+02
1.789399e+01, 2.226244e+02
1.166915e+01, 2.759436e+02
3.581159e+01, 1.531480e+01
6.701028e+01, 3.957288e+00
9.629754e+01, 3.355469e+02
9.774488e+01, 3.058748e+02
9.759329e+01, 2.771247e+02
9.440644e+01, 2.569996e+02
3.099791e+01, 2.289848e+02
2.905202e+01, 1.715124e+02
6.452834e+01, 5.731086e+01
1.000000e+02, 3.045116e+01
1.000000e+02, 3.304976e+01
1.000000e+02, 8.301835e+00
1.000000e+02, 2.848644e+01
1.000000e+02, 7.104941e+00
6.679293e+01, 3.344923e+02
6.273522e+01, 3.693608e+01
1.565349e+01, 1.251921e+02
7.630330e+01, 1.766431e+02
8.041053e+01, 1.635250e+02
1.000000e+02, 1.608861e+02
1.000000e+02, 1.499274e+02
4.243100e+01, 1.385127e+02
3.284400e+01, 8.078396e+01
4.976311e+01, 5.822965e+01
2.221020e+01, 4.189006e+01
3.824091e+01, 3.053640e+01
4.297778e+01, 3.441062e+02
9.367342e+01, 3.246629e+02
9.935223e+01, 3.132226e+02
1.000000e+02, 3.057379e+02
4.921061e+01, 3.095396e+02
2.078574e+01, 3.365478e+01
3.025855e+01, 5.092424e+01
4.997742e+01, 6.858854e+01
7.193414e+01, 7.349689e+01
6.929348e+01, 7.023579e+01
8.817803e+01, 5.201553e+01
7.020583e+01, 4.504448e+01
9.470562e+01, 2.314161e+01
9.914271e+01, 1.009753e+01
4.404377e+01, 3.818857e+01
2.472509e+01, 3.316597e+01
5.070538e+00, 1.455563e+02
6.973833e+01, 1.547929e+02
1.000000e+02, 1.591978e+02
1.000000e+02, 1.557839e+02
6.721531e+01, 1.462949e+02
1.955619e+01, 1.320251e+02
1.059763e+01, 4.407760e+01
1.401543e+01, 4.914349e-01
2.306183e+01, 5.068012e+01
3.847373e+01, 3.520202e+02
7.667757e+01, 3.279247e+02
1.000000e+02, 3.082622e+02
1.000000e+02, 2.978243e+02
6.133145e+01, 2.799562e+02
2.360556e+01, 2.383861e+02
4.735798e+01, 3.903479e+01
4.751156e+01, 1.918051e+01
4.322460e+01, 3.335752e+02
9.602657e+01, 3.363986e+02
7.425102e+01, 3.130661e+02
9.641518e+01, 3.021509e+02
5.365983e+01, 2.984129e+02
1.270177e+01, 2.640685e+01
6.003414e+01, 2.092346e+02
4.380539e+01, 1.424492e+02
6.376891e+01, 8.179082e+01
7.360037e+01, 1.205491e+02
5.903370e+01, 6.924834e+01
5.449986e+01, 2.421832e+01
2.843121e+01, 9.397544e+01
1.090306e+01, 7.805781e+01
3.981532e+00, 2.674059e+02
7.715977e+00, 1.199359e+02
1.655943e+01, 1.572747e+00
4.016074e+01, 3.288082e+02
6.150665e+01, 3.392283e+02
7.863843e+01, 3.475610e+02
5.976134e+01, 3.546097e+02
7.449695e+01, 1.412562e+01
8.557243e+01, 1.807348e+01
7.029759e+01, 3.301133e+01
5.104730e+01, 1.120470e+01
4.052920e+01, 3.148211e+02
3.669691e+01, 2.860512e+02
7.440977e+01, 2.367442e+02
9.966021e+01, 2.395667e+02
9.916766e+01, 2.170150e+02
9.340918e+01, 1.941048e+02
6.139634e+01, 2.085854e+02
1.489495e+01, 1.788913e+02
2.151855e+01, 1.091574e+01
6.046020e+01, 2.861848e+02
8.415323e+01, 2.860940e+02
8.179829e+01, 2.828034e+02
8.630485e+01, 2.590495e+02
3.434924e+01, 2.549620e+02
5.735541e+00, 3.334118e+02
2.407580e+01, 2.539411e+02
1.736199e+01, 2.850166e+02
1.129942e+01, 1.533836e+01
5.907704e+01, 5.142375e+01
1.000000e+02, 5.214422e+01
1.000000e+02, 5.029019e+01
7.135098e+01, 4.297308e+01
1.756245e+01, 2.411211e+01
1.325608e+01, 9.394112e+01
3.536039e+01, 1.431569e+02
5.870819e+01, 1.337393e+02
8.337083e+01, 1.073866e+02
7.507168e+01, 1.058431e+02
8.420476e+01, 9.118670e+01
7.216353e+01, 1.034996e+02
6.958521e+01, 1.160769e+02
6.694146e+01, 9.053790e+01
2.839203e+01, 8.154607e+01
2.046046e+01, 2.832751e+02
5.974297e+01, 3.105448e+02
7.837839e+01, 2.813272e+02
7.871198e+01, 2.582844e+02
6.318185e+01, 2.894375e+02
2.531371e+01, 2.764057e+02
1.529203e+01, 1.195171e+02
1.535712e+01, 3.268790e+02
3.864227e+01, 7.094258e+01
3.419085e+01, 1.211035e+02
7.673289e+01, 8.388427e+01
1.000000e+02, 6.637075e+01
7.311175e+01, 8.804878e+01
2.932585e+01, 4.904459e+01
3.737660e+01, 3.064916e+02
3.446555e+01, 2.519553e+02
6.663734e+01, 2.555653e+02
7.740931e+01, 2.490690e+02
3.866367e+01, 2.063804e+02
2.288603e+01, 1.724011e+02
6.386662e+01, 6.928117e+01
6.878946e+01, 4.864665e+01
5.805753e+01, 3.350724e+01
7.983081e+01, 3.188895e+01
4.662866e+01, 4.500485e+01
2.270540e+01, 1.078880e+02
3.317001e+01, 1.524356e+02
7.395794e+01, 1.879482e+02
9.979576e+01, 1.964834e+02
8.804235e+01, 2.048863e+02
4.025208e+01, 2.092289e+02
1.447230e+01, 1.001922e+01
2.355420e+01, 3.830529e+01
5.293767e+01, 4.647329e+01
5.768514e+01, 1.003858e+02
7.473660e+01, 1.005128e+02
7.549924e+01, 9.726528e+01
7.391677e+01, 1.319481e+02
3.087447e+01, 1.399060e+02
1.112146e+01, 2.648668e+02
2.317151e+01, 2.080543e+02
3.184236e+01, 2.298098e+02
4.140846e+01, 2.217146e+02
3.302335e+01, 1.982167e+02
3.452439e+01, 1.745615e+02
1.064567e+01, 1.275664e+02
2.198885e+01, 2.559672e+01
4.152963e+01, 3.583107e+02
3.289081e+01, 3.552829e+02
2.440026e+01, 3.393125e+02
1.263117e+01, 2.895937e+02
3.260522e+01, 1.528377e+02
6.268353e+01, 1.671353e+02
8.669988e+01, 1.694726e+02
6.673331e+01, 1.596675e+02
3.822469e+01, 1.495447e+02
1.640847e+01, 9.587033e+01
2.592313e+01, 3.363655e+02
2.274908e+01, 3.578494e+01
1.473392e+01, 1.613193e+02
6.500077e+01, 1.181087e+02
1.000000e+02, 1.064041e+02
7.433352e+01, 1.213188e+02
4.153972e+01, 9.419618e+01
2.529774e+01, 3.187236e+01
1.395364e+01, 8.363986e+00
1.408343e+01, 3.086166e+02
1.968035e+01, 2.337560e+02
2.528633e+01, 1.571509e+02
4.023896e+01, 1.591866e+02
4.016549e+01, 1.178402e+02
2.875968e+01, 8.797391e+01
2.774393e+01, 2.790556e+01
2.319251e+01, 3.255698e+01
2.932747e+01, 3.416436e+02
5.011221e+01, 3.090447e+02
2.328624e+01, 2.870001e+02
5.498531e+01, 2.680570e+02
7.872303e+01, 2.530292e+02
3.664429e+01, 2.439182e+02
3.356729e+01, 2.083660e+02
3.964558e+01, 1.663637e+02
1.386046e+01, 9.510961e+01
3.833233e+01, 1.154417e+02
2.442916e+01, 2.036136e+02
4.440445e+01, 1.687986e+02
6.124615e+01, 1.574218e+02
8.801539e+01, 1.959537e+02
6.197635e+01, 1.950327e+02
2.821798e+01, 1.962833e+02
4.282936e+01, 2.038725e+02
2.661291e+01, 2.206914e+02
2.626981e+01, 2.386807e+02
3.438487e+01, 2.328382e+02
3.819184e+01, 2.414947e+02
4.636499e+01, 2.664437e+02
3.614890e+01, 2.904025e+02
3.530980e+01, 3.404100e+02
2.454427e+01, 3.347451e+02
3.600961e+01, 1.284013e+01
5.403698e+01, 2.144483e+01
5.023154e+01, 7.150876e+01
7.997065e+01, 6.070146e+01
9.918233e+01, 4.971688e+01
9.953023e+01, 5.300118e+01
6.180307e+01, 2.252105e+01
4.559089e+01, 2.981160e+02
6.437743e+01, 2.939151e+02
6.815182e+01, 2.795262e+02
8.188682e+01, 3.157791e+02
8.027420e+01, 3.279366e+02
7.669384e+01, 3.340049e+02
8.391472e+01, 3.398791e+02
6.535612e+01, 3.272713e+02
4.322766e+01, 3.132145e+02
2.430218e+01, 3.479459e+02
3.319522e+01, 5.684476e+01
6.210729e+01, 6.872319e+01
6.201004e+01, 6.181251e+01
4.784662e+01, 5.358403e+01
1.451711e+01, 3.481078e+01
1.346134e+01, 3.042209e+02
2.242434e+01, 2.841510e+02
1.767829e+01, 1.829406e+02
1.471660e+01, 1.570833e+02
1.302749e+01, 1.310187e+02
3.552797e+01, 8.647178e+01
2.907767e+01, 6.986260e+01
2.341522e+01, 5.545373e+01
2.342531e+01, 2.528020e+00
2.699553e+01, 3.247251e+02
4.228933e+01, 3.022803e+02
5.194891e+01, 2.713735e+02
6.159395e+01, 2.742931e+02
3.884914e+01, 2.558656e+02
3.171607e+01, 2.856183e+02
3.158183e+01, 3.209603e+02
3.630148e+01, 3.204233e+01
4.814423e+01, 2.508391e+01
4.374189e+01, 1.812697e+01
3.108640e+01, 3.240068e+01
1.745328e+01, 6.716120e+01
3.507761e+01, 1.155718e+02
4.518914e+01, 1.334249e+02
6.235747e+01, 1.221961e+02
4.248719e+01, 1.584223e+02
1.773730e+01, 1.984141e+02
3.368162e+01, 2.764747e+02
4.637744e+01, 2.448296e+02
3.995200e+01, 2.450650e+02
2.266699e+01, 2.282723e+02
4.520537e+01, 8.561971e+01
7.890496e+01, 5.912730e+01
9.886992e+01, 4.980848e+01
9.253923e+01, 3.217076e+01
5.102552e+01, 2.721776e+01
3.284735e+01, 3.756919e+01
1.130374e+01, 2.642904e+02
2.999234e+01, 1.532675e+01
2.047793e+01, 6.271104e+01
7.275269e+01, 2.029990e+01
9.817408e+01, 4.397610e+00
6.178533e+01, 4.501013e+01
3.659161e+01, 5.551670e+01
1.760972e+01, 1.002708e+02
5.944284e+01, 8.745582e+01
3.943112e+01, 9.319567e+01
3.545586e+01, 1.295350e+02
2.501664e+01, 5.483429e+01
1.674490e+01, 1.320209e+02
5.801657e+01, 2.961702e+02
4.996401e+01, 2.840903e+02
3.118319e+01, 2.867636e+02
7.315599e+01, 2.614761e+02
2.393414e+01, 2.502375e+02
2.097031e+01, 7.896016e+01
6.555331e+01, 1.515559e+02
6.623301e+01, 1.317368e+02
5.352999e+01, 1.319847e+02
9.295704e+01, 1.429762e+02
6.362470e+01, 1.538938e+02
4.159679e+01, 1.667837e+02
2.889230e+01, 8.964442e+01
4.418085e+01, 5.682518e+01
8.199739e+01, 2.571874e+01
7.869402e+01, 3.884823e+01
6.061595e+01, 6.690306e+01
2.493825e+01, 1.445611e+02
5.614726e+01, 1.610862e+02
6.456756e+01, 1.571393e+02
6.805863e+01, 1.754257e+02
4.484703e+01, 1.916949e+02
4.840337e+01, 2.462343e+02
6.196865e+01, 2.568136e+02
9.307320e+01, 2.708893e+02
5.537066e+01, 3.140214e+02
4.076331e+01, 3.315239e+02
1.626868e+01, 1.943998e+01
6.700754e+01, 2.543713e+01
4.080012e+01, 5.462669e+01
4.820205e+01, 1.103831e+02
2.346881e+01, 1.343286e+02
7.238737e+01, 1.309450e+02
9.454534e+01, 1.229404e+02
6.529646e+01, 1.557149e+02
3.244285e+01, 1.625749e+02
1.678445e+01, 2.677993e+02
5.417848e+01, 2.186332e+02
5.546096e+01, 2.588632e+02
1.758770e+01, 2.178614e+02
3.098268e+01, 2.927117e+02
5.038737e+01, 2.907552e+02
5.270097e+01, 3.476297e+02
3.921014e+01, 3.163277e+02
2.964604e+01, 2.468484e+02
1.770008e+01, 3.221694e+02
3.501367e+01, 1.471036e+02
8.179437e+01, 1.379510e+02
5.196403e+01, 1.478320e+02
6.439818e+01, 1.390104e+02
8.687058e+01, 1.698127e+02
7.972391e+01, 1.327492e+02
9.190000e+01, 8.710069e+01
9.760200e+01, 9.359688e+01
9.694448e+01, 6.342727e+01
8.619649e+01, 4.434992e+01
6.682534e+01, 9.604024e+01
7.137388e+01, 9.931237e+01
6.759951e+01, 9.245170e+01
8.418168e+01, 1.108167e+02
4.466912e+01, 1.058464e+02
6.558012e+00, 9.158224e+01
2.306911e+01, 1.137718e+02
1.512625e+01, 1.982197e+02
3.027198e+00, 3.338978e+02
3.833062e+01, 2.374517e+02
7.433256e+01, 2.264111e+02
7.093861e+01, 2.418256e+02
6.148820e+01, 2.018157e+02
6.741494e+01, 1.572073e+02
4.018970e+01, 1.621176e+02
3.518601e+01, 1.451162e+02
1.945522e+01, 1.953218e+02
7.894973e+01, 2.661114e+02
9.732031e+01, 2.620741e+02
9.572473e+01, 2.664096e+02
4.120029e+01, 2.352366e+02
4.295793e+01, 1.257413e+02
3.501982e+01, 7.694920e+01
6.981488e+01, 9.684019e+01
9.501649e+01, 1.040714e+02
9.655616e+01, 1.212407e+02
8.860541e+01, 1.128170e+02
4.211320e+01, 8.848478e+01
7.994060e+00, 2.735327e+02
4.784464e+01, 2.801148e+02
6.099898e+01, 2.696815e+02
3.858081e+01, 2.332289e+02
2.422628e+01, 2.112908e+02
3.573372e+01, 9.543554e+01
3.825022e+01, 5.598901e+01
4.426275e+01, 3.575557e+02
8.537045e+01, 3.481356e+02
1.000000e+02, 3.129933e+02
1.000000e+02, 2.854116e+02
7.592040e+01, 3.044045e+02
2.360993e+01, 2.846618e+02
2.607949e+01, 1.262391e+02
5.102616e+01, 5.233840e+01
8.358526e+01, 6.057797e+01
9.577290e+01, 3.998587e+01
9.342055e+01, 3.778151e+01
6.572797e+01, 3.583472e+01
3.999070e+01, 3.171547e+01
2.361289e+01, 3.982212e+01
2.823625e+01, 5.974238e+01
6.020547e+01, 6.659193e+01
8.849222e+01, 6.622717e+01
9.457974e+01, 6.029875e+01
8.191411e+01, 6.824764e+01
3.651825e+01, 4.184423e+01
2.087332e+01, 3.311036e+02
2.242890e+01, 9.969285e+01
1.586444e+01, 1.238554e+02
3.329438e+01, 1.424767e+02
4.996280e+01, 1.981181e+02
7.749260e+01, 2.148792e+02
9.420138e+01, 2.068102e+02
5.651809e+01, 2.103077e+02
2.404412e+01, 2.426196e+02
2.003390e+01, 1.766799e+02
1.817003e+01, 2.184469e+02
3.521301e+01, 2.258086e+02
3.281802e+01, 2.119119e+02
3.487737e+01, 2.246105e+02
5.960426e+01, 2.697340e+02
6.871459e+01, 2.730455e+02
6.964713e+01, 2.616339e+02
9.948250e+01, 2.442017e+02
9.841195e+01, 2.202420e+02
9.809444e+01, 1.955049e+02
9.935206e+01, 1.947567e+02
6.733515e+01, 1.686564e+02
5.114979e+01, 1.152369e+02
4.009404e+01, 1.238821e+02
4.784026e+01, 8.411091e+01
4.897303e+01, 6.132461e+01
4.535230e+01, 1.295939e+02
2.436149e+01, 1.871338e+02
4.192964e+01, 1.933900e+02
6.942680e+01, 2.384275e+02
8.902506e+01, 2.473870e+02
5.842843e+01, 2.537134e+02
2.713938e+01, 2.201948e+02
3.328347e+01, 1.315657e+02
4.232622e+01, 1.155897e+02
4.721481e+01, 9.926282e+01
2.737215e+01, 8.219066e+01
2.025607e+01, 2.839049e+02
5.835319e+01, 2.639153e+02
9.020904e+01, 2.587270e+02
7.886156e+01, 2.525812e+02
5.279992e+01, 2.541267e+02
4.064675e+01, 2.667026e+02
3.127759e+01, 2.606930e+02
3.208403e+01, 2.362659e+02
3.595104e+01, 2.256484e+02
5.136631e+01, 2.138375e+02
5.684285e+01, 2.027898e+02
3.077532e+01, 1.930286e+02
1.585550e+01, 1.240524e+02
3.405388e+01, 5.938776e+01
4.302585e+01, 2.537785e+01
3.677130e+01, 2.265050e+01
6.121606e+00, 1.777608e+02
4.550769e+01, 1.812470e+02
7.353865e+01, 1.784153e+02
8.894155e+01, 1.599991e+02
4.826861e+01, 1.478342e+02
6.234953e+00, 7.127639e+01
2.725483e+01, 1.939271e+01
2.828645e+01, 3.139375e+02
4.305137e+01, 2.510588e+02
5.128593e+01, 2.287530e+02
7.486951e+01, 1.942643e+02
6.977052e+01, 1.851975e+02
6.181236e+01, 1.432464e+02
6.142298e+01, 9.427723e+01
3.667919e+01, 5.908984e+01
5.287023e+01, 1.757827e+01
8.021331e+01, 3.566114e+02
##END= 
